Ar
Integration time [ms]:  10.000
Averaging Nr. [scans]: 60
Smoothing Nr. [pixels]: 0
Data measured with spectrometer [name]: 1701237U1
Wave   ;Sample   ;Dark     ;Reference
[nm]   ;[counts] ;[counts] ;[counts] 

173.876;   -6.838;   -0.614;    0.000
174.482;   -2.335;    0.785;    0.000
175.087;   -0.119;    0.751;    0.000
175.693;    5.729;    1.668;    0.000
176.298;    2.817;   -3.981;    0.000
176.903;   -5.976;    5.667;    0.000
177.509;   -5.551;   -0.033;    0.000
178.114;    2.415;   -1.165;    0.000
178.719;    0.501;  -11.049;    0.000
179.325;   -8.492;   -5.865;    0.000
179.930;   -5.712;   -2.065;    0.000
180.535;   -0.362;   -6.266;    0.000
181.140;   -2.265;    1.002;    0.000
181.745;   -0.374;    5.817;    0.000
182.351;    1.671;   -0.633;    0.000
182.956;   -8.160;    6.618;    0.000
183.561;   -0.169;   -1.281;    0.000
184.166;    0.525;   -1.615;    0.000
184.771;   -8.405;   -0.583;    0.000
185.376;   -3.696;   -0.032;    0.000
185.981;   -3.121;    0.918;    0.000
186.586;   -1.277;    2.368;    0.000
187.191;   -7.046;    2.235;    0.000
187.796;   -1.748;   -2.765;    0.000
188.400;   -1.571;   -2.713;    0.000
189.005;    3.664;   -4.082;    0.000
189.610;  -10.997;   -0.682;    0.000
190.215;  -10.220;    2.552;    0.000
190.820;   -3.087;    3.752;    0.000
191.424;  -10.084;   -0.948;    0.000
192.029;   -2.496;   -0.797;    0.000
192.634;  -14.289;    4.203;    0.000
193.238;    0.221;    2.517;    0.000
193.843;   -7.438;   -0.213;    0.000
194.448;   -1.419;   -0.980;    0.000
195.052;   -7.907;   -0.448;    0.000
195.657;  -10.108;    4.353;    0.000
196.261;    3.691;    1.187;    0.000
196.866;   -2.863;   -3.980;    0.000
197.470;    1.523;   -0.814;    0.000
198.075;   -5.208;   -0.813;    0.000
198.679;   -8.262;   -8.346;    0.000
199.284;  -11.672;   -3.815;    0.000
199.888;    3.281;   -7.679;    0.000
200.492;   -3.934;   -4.447;    0.000
201.097;   -7.287;    3.053;    0.000
201.701;  -11.757;   -2.496;    0.000
202.305;   -6.432;    2.252;    0.000
202.909;    2.622;   -0.098;    0.000
203.514;   -0.457;   -6.464;    0.000
204.118;   -3.034;   -6.050;    0.000
204.722;   -0.360;   -5.332;    0.000
205.326;   -7.167;   -1.765;    0.000
205.930;   -4.417;   -6.448;    0.000
206.534;  -13.165;   -1.548;    0.000
207.138;   -6.803;   -3.714;    0.000
207.742;   -4.065;    2.269;    0.000
208.346;    1.882;    1.003;    0.000
208.950;   -2.675;   -5.015;    0.000
209.554;   -3.138;   -5.264;    0.000
210.158;   -1.849;    2.553;    0.000
210.762;   -2.167;   -1.031;    0.000
211.366;  -12.665;   -2.514;    0.000
211.970;  -11.051;   -5.898;    0.000
212.574;   -1.800;    1.853;    0.000
213.177;   -5.254;   -1.897;    0.000
213.781;   -2.086;    2.620;    0.000
214.385;   -8.133;   -2.231;    0.000
214.989;   -0.287;   -7.764;    0.000
215.592;   -3.151;   -6.430;    0.000
216.196;   -3.226;    0.504;    0.000
216.800;   -4.926;   -4.630;    0.000
217.403;    2.415;   -0.347;    0.000
218.007;   -3.619;   -7.096;    0.000
218.610;    0.666;    1.153;    0.000
219.214;  -20.414;    2.336;    0.000
219.817;   -5.754;    3.202;    0.000
220.421;   -5.888;  -10.914;    0.000
221.024;  -14.415;   -0.462;    0.000
221.628;   -6.048;   -4.312;    0.000
222.231;   -9.920;   -5.213;    0.000
222.834;   -7.777;    2.836;    0.000
223.438;   -7.434;   -4.132;    0.000
224.041;    0.784;   -0.812;    0.000
224.644;   -7.024;    0.870;    0.000
225.248;  -10.825;   -8.148;    0.000
225.851;   -4.508;   -1.065;    0.000
226.454;   -2.907;    0.087;    0.000
227.057;   -2.293;   -0.197;    0.000
227.660;   -6.723;   -2.681;    0.000
228.263;  -10.479;    5.520;    0.000
228.866;   -9.064;   -5.780;    0.000
229.470;  -11.759;   -1.081;    0.000
230.073;  -11.674;    0.703;    0.000
230.676;   -5.483;    2.768;    0.000
231.279;   -7.700;    0.437;    0.000
231.882;   -1.169;   -2.530;    0.000
232.484;   -1.702;   -6.748;    0.000
233.087;   -7.907;    1.352;    0.000
233.690;  -10.498;   -3.064;    0.000
234.293;   -3.493;   -4.981;    0.000
234.896;   -5.693;   -9.247;    0.000
235.499;   -8.549;   -6.412;    0.000
236.101;  -11.733;   -5.398;    0.000
236.704;   -5.287;   -8.197;    0.000
237.307;   -7.712;   -4.130;    0.000
237.910;   -2.785;   -3.213;    0.000
238.512;   -8.116;   -5.315;    0.000
239.115;   -8.647;  -10.900;    0.000
239.717;  -12.037;   -5.946;    0.000
240.320;   -2.858;   -5.732;    0.000
240.923;   -8.392;   -1.980;    0.000
241.525;   -2.498;   -3.346;    0.000
242.128;   -4.981;   -1.814;    0.000
242.730;   -0.287;   -4.848;    0.000
243.332;   -6.562;   -0.949;    0.000
243.935;   -8.107;   -2.663;    0.000
244.537;  -11.409;   -7.181;    0.000
245.140;   -4.990;   -5.614;    0.000
245.742;   -4.967;   -8.780;    0.000
246.344;  -11.233;   -2.264;    0.000
246.946;  -12.758;   -8.463;    0.000
247.549;   -2.858;   -3.114;    0.000
248.151;   -4.292;  -10.796;    0.000
248.753;   -7.814;   -9.231;    0.000
249.355;  -13.796;   -2.479;    0.000
249.957;   -4.048;   -2.998;    0.000
250.559;   -3.492;   -2.280;    0.000
251.161;   -8.935;   -3.198;    0.000
251.764;   -9.613;   -3.580;    0.000
252.366;  -11.271;   -5.048;    0.000
252.968;   -7.573;   -2.797;    0.000
253.570;   -7.892;   -7.264;    0.000
254.171;   -8.810;   -4.413;    0.000
254.773;  -13.155;   -8.181;    0.000
255.375;   -9.234;   -8.780;    0.000
255.977;   -0.051;   -6.882;    0.000
256.579;   -3.402;   -9.965;    0.000
257.181;   -6.513;   -4.831;    0.000
257.782;  -11.188;   -8.464;    0.000
258.384;   -7.051;  -11.547;    0.000
258.986;   -7.583;  -11.582;    0.000
259.588;  -13.872;   -3.898;    0.000
260.189;  -11.648;   -7.180;    0.000
260.791;   -5.286;   -2.514;    0.000
261.392;   -8.597;   -7.897;    0.000
261.994;   -9.222;  -11.713;    0.000
262.596;   -8.753;  -11.763;    0.000
263.197;   -7.871;   -8.582;    0.000
263.799;  -10.831;  -11.412;    0.000
264.400;  -13.768;  -14.097;    0.000
265.002;   -3.505;  -12.114;    0.000
265.603;   -8.781;   -0.948;    0.000
266.204;   -7.175;  -11.598;    0.000
266.806;   -6.523;  -11.264;    0.000
267.407;   -5.013;  -12.797;    0.000
268.008;  -10.094;   -4.198;    0.000
268.610;   -9.085;   -8.680;    0.000
269.211;  -17.615;  -13.713;    0.000
269.812;   -5.105;  -11.782;    0.000
270.413;  -10.289;  -10.831;    0.000
271.014;  -10.434;  -10.614;    0.000
271.615;   -5.384;   -9.732;    0.000
272.217;  -10.527;  -13.681;    0.000
272.818;  -13.228;  -10.047;    0.000
273.419;  -11.364;  -12.397;    0.000
274.020;   -7.662;   -6.714;    0.000
274.621;   -8.840;   -7.463;    0.000
275.222;  -10.885;  -12.915;    0.000
275.823;   -9.083;  -18.813;    0.000
276.423;  -13.256;  -13.130;    0.000
277.024;   -6.555;  -11.331;    0.000
277.625;  -12.197;  -11.014;    0.000
278.226;  -12.873;   -8.597;    0.000
278.827;   -3.368;   -9.647;    0.000
279.427;    0.122;   -5.297;    0.000
280.028;  -11.735;   -7.032;    0.000
280.629;   -8.095;  -11.914;    0.000
281.230;  -15.092;   -7.381;    0.000
281.830;  -11.616;  -12.946;    0.000
282.431;   -6.202;    5.303;    0.000
283.031;  -13.676;  -12.314;    0.000
283.632;  -18.116;  -11.497;    0.000
284.233;   -5.482;   -9.130;    0.000
284.833;   -8.437;  -10.130;    0.000
285.434;   -1.554;   -3.514;    0.000
286.034;   -9.289;   -3.382;    0.000
286.634;   -9.171;  -11.930;    0.000
287.235;  -10.585;  -13.814;    0.000
287.835;  -11.478;  -10.948;    0.000
288.435;  -11.887;   -8.531;    0.000
289.036;   -8.024;  -14.032;    0.000
289.636;  -12.611;  -14.581;    0.000
290.236;   -5.467;   -2.612;    0.000
290.837;  -11.792;  -14.116;    0.000
291.437;   -5.788;  -13.132;    0.000
292.037;   -4.315;  -12.499;    0.000
292.637;   -2.437;   -8.548;    0.000
293.237;   -7.866;  -10.315;    0.000
293.837;   -3.844;  -16.030;    0.000
294.437;  -16.162;  -15.397;    0.000
295.037;  -11.292;  -17.781;    0.000
295.637;  -11.328;   -4.865;    0.000
296.237;  -11.446;  -11.132;    0.000
296.837;  -12.657;  -20.898;    0.000
297.437;  -13.808;  -12.831;    0.000
298.037;  -10.133;  -17.333;    0.000
298.637;   -6.060;  -10.549;    0.000
299.237;  -12.076;  -17.697;    0.000
299.836;   -6.264;  -10.865;    0.000
300.436;  -11.843;  -22.448;    0.000
301.036;   -9.896;  -12.432;    0.000
301.636;   -6.121;  -12.580;    0.000
302.235;   -9.177;  -12.281;    0.000
302.835;   -7.482;  -11.183;    0.000
303.434;   -5.400;  -16.580;    0.000
304.034;  -10.836;  -16.730;    0.000
304.634;  -12.340;  -13.415;    0.000
305.233;   -1.138;  -18.231;    0.000
305.833;   -7.538;  -11.798;    0.000
306.432;   -6.021;  -14.431;    0.000
307.032;  -17.386;   -9.764;    0.000
307.631;   -6.562;  -12.898;    0.000
308.230;   -0.874;  -10.897;    0.000
308.830;   -5.726;  -16.280;    0.000
309.429;  -11.684;  -15.296;    0.000
310.028;  -14.045;  -10.296;    0.000
310.628;   -6.001;  -15.863;    0.000
311.227;   -9.394;  -14.379;    0.000
311.826;  -10.335;  -10.847;    0.000
312.425;  -15.312;  -17.748;    0.000
313.024;   -3.540;  -18.130;    0.000
313.623;   -9.573;  -12.448;    0.000
314.223;   -8.462;  -16.297;    0.000
314.822;   -7.518;  -16.597;    0.000
315.421;   -4.259;  -17.029;    0.000
316.020;  -11.586;  -13.497;    0.000
316.619;  -13.239;  -10.529;    0.000
317.218;   -9.737;  -10.829;    0.000
317.816;   -7.766;  -20.730;    0.000
318.415;   -7.613;  -14.431;    0.000
319.014;   -8.654;  -18.129;    0.000
319.613;  -12.294;  -15.329;    0.000
320.212;   -5.731;  -14.830;    0.000
320.811;  -13.386;  -10.711;    0.000
321.409;  -10.404;  -16.864;    0.000
322.008;   -8.301;  -19.097;    0.000
322.607;  -16.431;  -17.528;    0.000
323.205;  -13.118;  -19.146;    0.000
323.804;  -13.341;  -12.679;    0.000
324.403;  -11.332;  -19.894;    0.000
325.001;  -10.792;  -19.645;    0.000
325.600;  -13.321;  -15.128;    0.000
326.198;   -7.925;  -15.246;    0.000
326.797;  -16.603;  -20.912;    0.000
327.395;   -9.823;  -20.377;    0.000
327.994;  -10.114;  -17.542;    0.000
328.592;  -15.296;  -13.709;    0.000
329.190;   -2.148;  -12.275;    0.000
329.789;  -17.979;  -12.825;    0.000
330.387;   -8.319;  -21.574;    0.000
330.985;  -10.271;  -21.025;    0.000
331.583;  -10.904;  -12.707;    0.000
332.182;  -15.022;  -17.256;    0.000
332.780;  -11.184;   -9.972;    0.000
333.378;   -6.017;  -11.121;    0.000
333.976;   -9.525;  -21.255;    0.000
334.574;   -9.181;  -20.821;    0.000
335.172;  -13.823;  -19.305;    0.000
335.770;  -12.476;  -17.139;    0.000
336.368;  -10.238;  -14.854;    0.000
336.966;   -3.785;  -19.840;    0.000
337.564;  -11.705;  -21.872;    0.000
338.162;   -4.186;  -19.990;    0.000
338.760;   -7.232;  -19.258;    0.000
339.358;   -9.680;  -18.707;    0.000
339.956;   -7.820;  -16.241;    0.000
340.554;  -10.612;  -20.108;    0.000
341.151;   -6.947;  -16.308;    0.000
341.749;   -7.312;  -24.023;    0.000
342.347;  -10.637;  -22.740;    0.000
342.944;   -7.952;  -24.737;    0.000
343.542;   -7.113;  -11.039;    0.000
344.140;   -8.582;  -13.839;    0.000
344.737;  -17.481;  -23.188;    0.000
345.335;   -6.878;  -17.140;    0.000
345.932;   -6.847;  -15.423;    0.000
346.530;   -6.957;  -23.274;    0.000
347.127;   -2.274;  -24.474;    0.000
347.725;  -12.961;  -22.839;    0.000
348.322;  -14.656;  -17.357;    0.000
348.920;   -8.153;  -24.107;    0.000
349.517;   -4.479;  -21.573;    0.000
350.114;  -11.267;  -22.089;    0.000
350.712;   -8.527;  -17.874;    0.000
351.309;   -9.653;  -21.691;    0.000
351.906;   -8.141;  -21.857;    0.000
352.503;   -5.657;  -17.557;    0.000
353.100;   -7.980;  -23.057;    0.000
353.698;   -7.627;  -16.475;    0.000
354.295;   -3.640;   -7.740;    0.000
354.892;   -7.655;  -15.572;    0.000
355.489;   -4.121;  -24.175;    0.000
356.086;   -5.508;  -19.456;    0.000
356.683;   -3.518;  -17.691;    0.000
357.280;   -7.556;  -20.989;    0.000
357.877;   -6.084;  -18.589;    0.000
358.474;   -3.826;  -21.223;    0.000
359.070;   -2.981;  -23.657;    0.000
359.667;   -3.635;  -24.974;    0.000
360.264;  -15.517;  -17.307;    0.000
360.861;   -4.842;  -16.439;    0.000
361.458;   -6.439;  -18.092;    0.000
362.054;   -4.275;  -17.523;    0.000
362.651;   -7.251;  -18.208;    0.000
363.248;   -5.657;  -18.358;    0.000
363.844;   -4.934;  -19.575;    0.000
364.441;   -2.016;  -19.574;    0.000
365.037;   -1.426;  -16.174;    0.000
365.634;  -13.401;  -20.841;    0.000
366.230;  -12.032;  -26.542;    0.000
366.827;   -2.079;  -17.708;    0.000
367.423;  -12.126;  -17.457;    0.000
368.020;   -9.149;  -16.608;    0.000
368.616;  -10.478;  -20.806;    0.000
369.213;   -8.870;  -19.673;    0.000
369.809;   -0.293;  -18.624;    0.000
370.405;   -3.038;  -27.876;    0.000
371.001;  -11.689;  -24.605;    0.000
371.598;   -0.893;  -18.123;    0.000
372.194;   -1.104;  -19.274;    0.000
372.790;   -6.865;  -26.975;    0.000
373.386;   -6.496;  -24.924;    0.000
373.982;   -6.059;  -27.640;    0.000
374.578;  -15.139;  -20.524;    0.000
375.174;  -10.317;  -23.705;    0.000
375.770;   -5.963;  -25.440;    0.000
376.366;   -9.602;  -26.056;    0.000
376.962;   -8.355;  -12.656;    0.000
377.558;    1.057;  -27.357;    0.000
378.154;   -8.676;  -20.191;    0.000
378.750;   -5.046;  -21.923;    0.000
379.346;   -1.599;  -17.507;    0.000
379.942;   -2.157;  -17.289;    0.000
380.537;   -1.130;  -16.222;    0.000
381.133;   -1.336;  -26.956;    0.000
381.729;   -2.113;  -21.075;    0.000
382.325;   -2.788;  -28.342;    0.000
382.920;   -3.747;  -16.723;    0.000
383.516;   -5.494;  -18.691;    0.000
384.111;   -8.278;  -20.073;    0.000
384.707;   -4.531;  -23.922;    0.000
385.302;   -5.738;  -23.606;    0.000
385.898;    4.430;  -12.223;    0.000
386.493;   -1.418;  -22.106;    0.000
387.089;   -9.772;  -12.155;    0.000
387.684;   -8.710;  -25.990;    0.000
388.280;   -6.510;  -18.740;    0.000
388.875;   -8.046;  -19.408;    0.000
389.470;    2.186;  -23.856;    0.000
390.066;   -0.762;  -21.290;    0.000
390.661;   -8.871;  -22.907;    0.000
391.256;    0.328;  -23.206;    0.000
391.851;    1.561;  -20.256;    0.000
392.446;    2.748;  -17.756;    0.000
393.041;    4.314;  -25.291;    0.000
393.637;    2.976;  -20.874;    0.000
394.232;    8.985;  -19.807;    0.000
394.827;   16.044;  -14.924;    0.000
395.422;   13.150;  -22.605;    0.000
396.017;    9.821;  -22.241;    0.000
396.612;    6.846;  -21.405;    0.000
397.206;   13.028;  -22.507;    0.000
397.801;  145.685;   59.510;    0.000
398.396;    4.773;  -13.757;    0.000
398.991;    1.074;  -30.240;    0.000
399.586;    4.739;  -20.356;    0.000
400.180;   -6.512;  -24.173;    0.000
400.775;    1.692;  -19.774;    0.000
401.370;   -2.152;  -17.425;    0.000
401.965;    0.483;  -16.490;    0.000
402.559;   12.907;  -28.624;    0.000
403.154;   18.219;  -15.257;    0.000
403.748;   19.852;  -22.091;    0.000
404.343;   21.656;  -15.423;    0.000
404.937;   18.817;  -27.090;    0.000
405.532;   18.753;  -18.923;    0.000
406.126;   19.681;  -24.239;    0.000
406.721;   20.716;  -17.491;    0.000
407.315;    7.017;  -23.473;    0.000
407.909;   -1.123;  -17.307;    0.000
408.504;    5.624;  -25.625;    0.000
409.098;    4.147;  -19.907;    0.000
409.692;    7.069;  -20.074;    0.000
410.286;    0.375;  -24.308;    0.000
410.881;    1.156;  -19.874;    0.000
411.475;    3.604;  -16.391;    0.000
412.069;   10.428;  -21.424;    0.000
412.663;    1.486;  -29.808;    0.000
413.257;    6.906;  -26.141;    0.000
413.851;   18.316;  -22.908;    0.000
414.445;   84.316;  -23.457;    0.000
415.039;  105.983;  -23.791;    0.000
415.633;  107.679;  -18.540;    0.000
416.227;  122.039;  -20.607;    0.000
416.821;  135.508;  -23.257;    0.000
417.415;  151.439;  -16.442;    0.000
418.008;  188.255;  -20.924;    0.000
418.602;  206.378;  -17.973;    0.000
419.196;  205.313;  -26.574;    0.000
419.790;  186.862;  -20.008;    0.000
420.383;  176.037;  -16.075;    0.000
420.977;  179.971;  -20.608;    0.000
421.571;  156.066;  -18.924;    0.000
422.164;  133.938;  -20.875;    0.000
422.758;   80.504;  -16.226;    0.000
423.351;   24.474;  -26.258;    0.000
423.945;   14.586;  -17.959;    0.000
424.538;   37.677;  -15.759;    0.000
425.132;   70.399;  -15.141;    0.000
425.725;   91.933;  -21.642;    0.000
426.318;  101.215;  -21.441;    0.000
426.912;  116.676;  -15.359;    0.000
427.505;   96.331;  -18.443;    0.000
428.098;  102.383;  -17.092;    0.000
428.692;  107.007;  -18.859;    0.000
429.285;   86.933;  -23.524;    0.000
429.878;   71.154;  -17.925;    0.000
430.471;   47.161;  -17.643;    0.000
431.064;   42.575;  -24.442;    0.000
431.657;   55.192;  -20.559;    0.000
432.250;   69.596;  -20.692;    0.000
432.843;   71.544;  -18.093;    0.000
433.436;   64.457;  -19.925;    0.000
434.029;   66.589;  -21.243;    0.000
434.622;   65.351;  -20.676;    0.000
435.215;   65.488;  -21.744;    0.000
435.808;   60.937;  -25.809;    0.000
436.401;   41.115;  -21.910;    0.000
436.994;   24.558;  -18.509;    0.000
437.586;   16.009;  -26.609;    0.000
438.179;   17.073;  -21.577;    0.000
438.772;   13.301;  -20.093;    0.000
439.364;    8.131;  -22.076;    0.000
439.957;   10.296;  -14.461;    0.000
440.550;   13.475;  -22.260;    0.000
441.142;    8.433;  -13.260;    0.000
441.735;    9.708;  -19.991;    0.000
442.327;    9.551;  -15.659;    0.000
442.920;   11.403;  -21.727;    0.000
443.512;    4.516;  -20.193;    0.000
444.104;   13.144;  -19.609;    0.000
444.697;   11.830;  -20.811;    0.000
445.289;    9.860;  -20.975;    0.000
445.881;    4.234;  -24.859;    0.000
446.474;   11.535;  -25.761;    0.000
447.066;    9.845;  -22.060;    0.000
447.658;    2.327;  -17.342;    0.000
448.250;   10.437;  -11.793;    0.000
448.843;    6.169;  -11.560;    0.000
449.435;   18.387;  -19.878;    0.000
450.027;   22.156;  -20.591;    0.000
450.619;   30.351;  -18.042;    0.000
451.211;   27.186;  -17.625;    0.000
451.803;   30.705;  -10.960;    0.000
452.395;   27.519;  -20.727;    0.000
452.987;   31.352;  -21.928;    0.000
453.579;   27.801;  -17.294;    0.000
454.170;   18.317;  -20.095;    0.000
454.762;   20.330;  -17.228;    0.000
455.354;   12.208;  -18.644;    0.000
455.946;    6.996;  -14.593;    0.000
456.537;    8.911;  -15.611;    0.000
457.129;   23.572;  -25.210;    0.000
457.721;   21.646;  -22.762;    0.000
458.312;   18.825;  -17.512;    0.000
458.904;   20.929;  -19.194;    0.000
459.496;   16.529;  -18.043;    0.000
460.087;   19.594;  -18.026;    0.000
460.679;   22.614;  -20.277;    0.000
461.270;   27.580;  -13.444;    0.000
461.862;   24.623;  -15.761;    0.000
462.453;   20.541;  -22.946;    0.000
463.044;   16.728;  -25.894;    0.000
463.636;   17.789;  -12.262;    0.000
464.227;   17.363;  -21.177;    0.000
464.818;   15.653;  -12.378;    0.000
465.409;   19.093;  -14.413;    0.000
466.001;   15.531;  -14.478;    0.000
466.592;   14.637;  -14.229;    0.000
467.183;   25.043;  -16.812;    0.000
467.774;   21.147;  -15.995;    0.000
468.365;   21.254;  -15.127;    0.000
468.956;   29.480;  -20.394;    0.000
469.547;   27.308;  -14.061;    0.000
470.138;   31.741;  -19.827;    0.000
470.729;   33.328;  -12.176;    0.000
471.320;   25.086;  -18.761;    0.000
471.911;   26.775;  -19.428;    0.000
472.502;   17.991;  -18.443;    0.000
473.092;   33.044;  -11.063;    0.000
473.683;   15.442;  -14.577;    0.000
474.274;   14.686;  -18.979;    0.000
474.865;   18.588;  -13.828;    0.000
475.455;   16.287;  -22.512;    0.000
476.046;   17.921;  -27.412;    0.000
476.637;   18.569;  -20.245;    0.000
