H
Integration time [ms]: 100.000
Averaging Nr. [scans]: 100
Smoothing Nr. [pixels]: 0
Data measured with spectrometer [name]: 1701237U1
Wave   ;Sample   ;Dark     ;Reference
[nm]   ;[counts] ;[counts] ;[counts] 

173.876;   -3.970;   -2.780;   -2.798
174.482;   -3.907;   -5.410;  -59.165
175.087;    4.808;    6.450;  -23.712
175.693;    8.214;    0.490;   32.370
176.298;    3.630;    8.660;   69.717
176.903;   -1.464;   -6.900;  -49.284
177.509;    0.508;    1.210;   11.406
178.114;    3.643;   -3.120;    6.531
178.719;   -2.334;   -8.520;  -62.420
179.325;   -2.949;   -7.780;  -47.591
179.930;   -4.658;   -6.940;  -35.173
180.535;    0.018;   -1.100;  -24.761
181.140;    2.640;    0.600;   27.185
181.745;   10.117;    7.490;   85.469
182.351;   -0.982;   -3.660;  -38.660
182.956;    1.086;    2.420;   66.529
183.561;    6.679;   -3.700;    7.015
184.166;   21.704;   21.560;  194.655
184.771;    4.188;   -6.410;  -22.411
185.376;   -5.607;   -7.710;  -43.265
185.981;    7.933;    7.870;   65.116
186.586;   -4.654;    1.790;  -37.836
187.191;    0.534;   -4.840;   -9.027
187.796;    5.320;    6.600;   29.804
188.400;    6.346;   -3.370;   15.448
189.005;   -1.517;    3.960;    5.133
189.610;   -7.405;   -7.320;  -59.172
190.215;   -2.110;  -10.760;  -55.463
190.820;   -6.339;  -12.010;  -74.141
191.424;   -4.351;   -9.750;  -41.935
192.029;   -7.241;   -6.750;  -49.172
192.634;  -10.053;  -10.000;  -36.678
193.238;    0.277;    0.370;   36.335
193.843;   -8.036;   -6.830;  -59.907
194.448;   -2.443;   -4.830;  -21.429
195.052;   -3.969;   -5.060;  -19.141
195.657;   -3.332;   -8.490;   -4.174
196.261;   -9.686;   -5.450;   -8.043
196.866;   -3.804;  -10.220;  -55.167
197.470;    1.209;   -1.090;   14.862
198.075;   -6.256;  -14.920;  -66.541
198.679;   -8.056;   -7.320;  -78.662
199.284;   -6.220;   -3.720;  -16.629
199.888;   -1.170;   -1.310;   -7.798
200.492;   -1.176;   -5.020;    2.708
201.097;    6.628;    0.640;   62.658
201.701;   -4.327;   -6.350;   -0.964
202.305;  -10.527;  -10.130;  -71.285
202.909;   -7.038;    0.190;   21.447
203.514;   -2.322;   -6.380;   -9.343
204.118;   -5.602;   -2.980;   -6.758
204.722;    3.446;    1.440;   53.395
205.326;   -1.157;   -8.560;  -27.252
205.930;   -2.189;   -7.400;  -46.177
206.534;   -7.790;   -4.430;  -28.565
207.138;   -5.810;   -9.230;  -75.647
207.742;    1.241;   -3.600;    0.422
208.346;   -4.822;   -4.160;  -38.455
208.950;    0.210;   -0.210;   -9.580
209.554;   26.000;   24.130;  271.803
210.158;   -9.722;   -8.250;  -66.105
210.762;    0.879;   -3.530;  -31.502
211.366;  -10.220;  -12.940;  -79.200
211.970;   -2.067;   -4.990;  -26.432
212.574;   -4.625;   -6.120;   -9.889
213.177;   -8.552;  -10.440;  -56.542
213.781;   -5.874;   -9.450;  -67.716
214.385;   22.010;   19.450;  210.838
214.989;   -0.292;    0.170;   30.175
215.592;    1.996;   -3.500;  -17.219
216.196;   -6.066;  -14.400;  -75.925
216.800;   -5.385;   -7.900;  -57.321
217.403;    7.288;   -0.740;   24.728
218.007;    0.373;   -5.780;    5.370
218.610;   -0.454;  -11.270;  -76.948
219.214;   -5.960;   -8.470;  -54.847
219.817;   21.160;   18.080;  181.134
220.421;   -5.751;   -9.740;  -73.351
221.024;   -1.370;   -7.630;  -45.878
221.628;   -2.182;  -15.840;  -72.503
222.231;  -12.474;  -14.630;  -92.852
222.834;   -7.241;  -10.020;  -50.385
223.438;  -10.427;   -9.880;  -59.469
224.041;   -3.122;   -6.390;   -9.237
224.644;   -3.016;  -12.720;  -42.894
225.248;   -5.171;   -5.070;  -18.017
225.851;   -4.328;   -8.200;  -37.390
226.454;   -3.134;  -10.810;  -38.519
227.057;   13.868;    3.770;  130.509
227.660;    7.110;    5.880;  119.902
228.263;   -6.613;   -7.240;    7.137
228.866;   -1.053;   -4.360;  -19.348
229.470;    4.859;    0.300;   61.495
230.073;   -9.254;   -0.640;  -23.268
230.676;    2.243;   -1.290;   80.885
231.279;   -4.225;   -1.670;   -2.989
231.882;   16.036;   22.200;  243.218
232.484;   -5.028;  -10.900;  -17.337
233.087;   -2.949;   -7.130;  -14.192
233.690;   -8.201;  -11.440;  -61.820
234.293;    8.109;   -1.230;   79.648
234.896;   -1.035;   -5.910;   -5.038
235.499;   -4.602;   -7.460;  -13.839
236.101;  -11.020;   -8.360;  -59.450
236.704;   -4.974;   -5.610;  -20.751
237.307;   -7.566;   -9.830;  -53.975
237.910;  -10.065;  -10.470;  -79.472
238.512;   -9.199;   -9.880;  -56.993
239.115;   -9.881;   -8.820;  -34.604
239.717;   -9.967;  -13.820;  -72.531
240.320;   -9.985;  -10.330;  -67.742
240.923;    2.376;   -0.750;   44.615
241.525;   -0.737;   -7.220;   11.786
242.128;    0.137;   -2.120;   27.007
242.730;   -6.020;   -7.090;  -34.966
243.332;   -7.093;    0.030;    8.067
243.935;    1.075;   -0.780;   42.544
244.537;    3.379;   -2.060;   48.529
245.140;  -11.902;  -13.350;  -74.293
245.742;    5.445;    6.480;   59.030
246.344;   -6.523;  -11.770;  -55.948
246.946;   -9.846;  -14.850;  -58.942
247.549;   -8.954;  -11.000;  -71.282
248.151;   -6.729;  -11.730;  -48.124
248.753;    1.620;   -5.690;   39.503
249.355;   -8.679;   -6.280;  -19.274
249.957;   -7.509;  -11.010;  -69.908
250.559;   -4.014;   -4.080;    3.618
251.161;   -1.710;   -8.160;  -13.733
251.764;    3.347;   -1.600;   44.621
252.366;    4.161;    1.700;   17.906
252.968;   -4.822;  -13.980;  -28.426
253.570;   -5.281;   -6.800;  -32.438
254.171;   -2.775;    0.420;   12.527
254.773;   -0.099;   -0.570;    7.455
255.375;  -10.915;  -14.900;  -59.807
255.977;   -7.284;  -11.510;  -45.536
256.579;    3.151;   -2.780;   46.088
257.181;   -5.812;  -14.930;  -83.159
257.782;   -6.982;   -6.460;  -23.740
258.384;   -7.352;  -16.310;  -63.455
258.986;  -10.968;  -10.670;  -94.471
259.588;   -7.711;  -10.960;  -31.867
260.189;   -5.204;   -6.530;  -65.317
260.791;   -4.834;  -10.630;    6.334
261.392;   15.335;   10.230;  143.693
261.994;  -16.236;  -11.890;  -80.544
262.596;   -5.725;   -8.450;  -25.090
263.197;   -6.557;   -8.250;  -32.718
263.799;  -10.461;  -10.140;  -76.016
264.400;  -13.993;  -10.670;  -91.814
265.002;   -1.302;   -0.860;   34.745
265.603;   -9.940;   -7.490;  -66.666
266.204;   -7.389;   -6.090;  -14.742
266.806;  -10.521;   -7.250;  -47.201
267.407;  -12.055;  -11.350;  -41.271
268.008;    4.412;    4.200;  111.643
268.610;  -12.095;  -11.550;  -57.206
269.211;  -10.516;  -18.420;  -81.109
269.812;   -9.427;  -14.320;  -53.850
270.413;   -3.991;   -5.180;   18.462
271.014;   -8.274;   -5.700;    1.450
271.615;   -7.868;    0.400;    6.779
272.217;   -9.919;   -6.550;  -50.593
272.818;    4.937;   -2.710;   55.787
273.419;    0.747;   -0.910;   55.239
274.020;   -4.131;  -10.490;  -32.901
274.621;   -9.577;   -7.760;  -30.184
275.222;   -9.659;  -18.230;  -73.942
275.823;   -4.535;   -7.510;  -36.305
276.423;   -8.035;  -14.430;  -50.270
277.024;  -12.359;  -13.960;  -54.608
277.625;   -2.044;   -9.450;    1.084
278.226;   -4.904;  -10.880;  -24.499
278.827;   -5.945;   -5.760;   10.376
279.427;    5.315;   -0.070;   88.495
280.028;   -0.665;  -10.900;  -49.022
280.629;   -5.853;  -11.670;  -47.061
281.230;   11.408;   -1.780;   96.441
281.830;  -10.477;  -10.370;  -57.282
282.431;   31.527;   20.920; 2673.655
283.031;    3.219;   -2.330;   71.697
283.632;  -12.734;  -14.620;  -59.965
284.233;   -7.166;   -9.810;  -26.708
284.833;    0.864;   -6.610;   21.841
285.434;   -5.191;    0.600;   45.263
286.034;   -9.357;  -15.180;  -72.515
286.634;   -0.884;   -9.380;  -13.899
287.235;   -6.701;   -9.530;  -57.871
287.835;   -9.909;  -10.680;  -64.944
288.435;   -0.080;   -7.430;  -16.399
289.036;  -11.218;  -12.710;  -86.437
289.636;   -8.770;  -17.980;  -69.132
290.236;   -5.073;   -9.340;  -45.527
290.837;   -2.873;  -13.190;  -72.181
291.437;   -8.547;   -5.660;   19.249
292.037;   -5.345;   -8.790;  -15.056
292.637;    2.381;    3.610;   56.088
293.237;   -9.077;  -11.070;    1.350
293.837;   -3.154;   -6.000;  -21.668
294.437;   -2.064;   -0.740;   32.685
295.037;   -5.619;   -9.240;  -65.762
295.637;  -13.346;   -8.980;  -47.827
296.237;   -8.746;   -5.500;  -41.761
296.837;   -8.448;  -14.600;   -9.154
297.437;  -11.252;  -10.780;  -51.156
298.037;   -8.693;  -16.250;  -63.397
298.637;   -9.616;  -17.130;  -61.696
299.237;   -9.213;   -9.140;  -35.230
299.836;   -5.486;   -6.080;   20.837
300.436;   -9.480;   -9.080;    8.803
301.036;   -9.264;  -12.650;  -35.352
301.636;   -7.594;  -17.700;  -42.433
302.235;   -3.722;   -6.290;    3.477
302.835;  -11.223;  -13.590;  -36.949
303.434;   -6.943;  -10.440;  -25.413
304.034;   -6.917;  -18.310;  -28.963
304.634;   -9.019;  -17.790;  -33.691
305.233;   -6.500;  -14.300;  -14.614
305.833;   -7.041;  -11.950;  -30.569
306.432;   -2.721;  -17.040;   40.163
307.032;    7.716;   -6.920;   90.285
307.631;    7.169;   -9.320;  110.148
308.230;    6.357;    1.780;  149.221
308.830;    5.306;  -12.430;   94.483
309.429;    2.742;  -22.650;   62.782
310.028;    5.392;   -8.610;  123.362
310.628;    7.654;  -10.170;  137.608
311.227;    4.771;  -15.940;   95.810
311.826;   13.509;   -9.640;  144.979
312.425;    1.432;  -11.670;   90.013
313.024;   10.945;   -5.840;  180.463
313.623;   -1.210;  -15.520;   62.818
314.223;   15.918;   -6.660;  170.660
314.822;   17.045;   -0.190;  227.011
315.421;    9.032;   -7.880;  176.013
316.020;    9.065;  -11.110;  145.209
316.619;    9.259;   -7.470;  167.601
317.218;    9.491;  -12.950;  118.010
317.816;    5.283;  -11.710;  142.319
318.415;   55.850;   33.090;  567.718
319.014;   12.723;   -1.930;  179.233
319.613;   11.581;   -4.960;  156.193
320.212;    7.993;  -12.570;  116.151
320.811;   11.306;   -9.880;  161.751
321.409;   26.679;    2.690;  249.631
322.008;    6.495;  -19.420;   98.677
322.607;    5.548;   -9.280;  138.412
323.205;   13.322;  -15.920;  123.396
323.804;    5.642;  -14.630;   84.866
324.403;    8.103;  -19.180;  135.189
325.001;    6.477;  -13.880;  117.591
325.600;   17.348;  -12.930;  195.644
326.198;    9.860;  -10.970;  157.754
326.797;    6.817;  -13.730;  128.540
327.395;   12.472;   -6.400;  223.216
327.994;   27.206;    3.340;  331.536
328.592;   10.584;  -17.210;  176.012
329.190;   75.490;   50.760;  822.294
329.789;   12.251;  -16.370;  160.947
330.387;   28.739;    6.340;  384.620
330.985;   14.051;  -16.030;  169.947
331.583;    7.155;  -16.230;  159.703
332.182;   12.270;  -10.630;  197.361
332.780;   22.609;    1.440;  327.521
333.378;   24.763;    0.890;  334.910
333.976;    8.876;  -19.620;  165.644
334.574;   16.764;   -8.940;  283.881
335.172;   14.467;  -12.580;  212.679
335.770;   21.219;  -10.050;  285.925
336.368;   35.674;    1.120;  467.182
336.966;    8.354;  -16.800;  226.963
337.564;   13.951;  -15.270;  240.583
338.162;   24.983;   -0.870;  373.544
338.760;   28.213;   -6.450;  348.839
339.358;   20.978;  -10.400;  254.084
339.956;   19.180;   -1.640;  315.410
340.554;   14.721;  -11.520;  274.796
341.151;   15.720;  -11.280;  286.643
341.749;   21.085;    3.150;  370.833
342.347;   11.964;  -19.010;  240.798
342.944;   23.583;   -5.640;  334.310
343.542;   15.951;  -13.200;  263.417
344.140;   10.760;   -7.360;  228.430
344.737;   20.256;  -13.350;  283.311
345.335;   31.423;   -0.940;  382.909
345.932;   21.203;   -7.740;  319.593
346.530;   15.908;  -11.770;  244.884
347.127;   18.426;   -6.520;  332.307
347.725;   16.000;  -10.030;  304.092
348.322;   23.457;  -10.540;  372.496
348.920;   24.164;    0.240;  362.066
349.517;   21.103;  -10.010;  323.692
350.114;   36.622;    1.090;  467.872
350.712;   17.427;  -16.890;  307.926
351.309;   26.989;   -4.300;  374.902
351.906;   14.848;  -16.280;  314.583
352.503;   27.787;   -7.980;  378.813
353.100;   25.206;   -8.820;  383.641
353.698;   23.063;   -5.640;  382.573
354.295;   82.956;   47.730;  936.222
354.892;   28.630;   -5.900;  400.695
355.489;   18.672;  -11.880;  356.600
356.086;   29.922;   -1.870;  460.636
356.683;   21.408;  -17.260;  340.581
357.280;   24.499;  -11.420;  361.722
357.877;   28.960;   -5.000;  437.061
358.474;   18.295;  -20.730;  312.352
359.070;   29.978;   -1.630;  441.865
359.667;   21.887;  -11.350;  355.894
360.264;   26.116;  -17.650;  406.991
360.861;   25.023;  -14.820;  396.940
361.458;   33.632;   -5.320;  467.084
362.054;   36.643;   -6.230;  484.591
362.651;   32.861;  -12.010;  429.581
363.248;   27.981;  -15.860;  373.931
363.844;   25.342;  -17.480;  387.284
364.441;   24.869;  -11.740;  453.636
365.037;   30.918;  -12.760;  432.900
365.634;   33.949;  -14.340;  418.005
366.230;   33.842;  -18.150;  483.051
366.827;   35.099;  -12.670;  477.422
367.423;   28.305;  -14.460;  465.885
368.020;   33.359;  -18.250;  435.871
368.616;   41.344;   -5.750;  553.664
369.213;   38.155;   -6.050;  559.034
369.809;   72.346;   20.390;  855.489
370.405;   26.557;  -21.830;  448.608
371.001;   29.970;  -10.900;  480.509
371.598;   37.072;   -6.400;  532.868
372.194;   29.566;  -16.440;  472.874
372.790;   31.793;  -10.600;  460.605
373.386;   41.500;   -8.150;  556.558
373.982;   28.354;  -12.920;  503.598
374.578;   40.318;  -14.640;  533.116
375.174;   36.467;   -6.470;  566.446
375.770;   45.144;    1.860;  689.563
376.366;   29.273;  -19.430;  468.143
376.962;   43.624;   -8.240;  617.747
377.558;   38.219;   -6.660;  611.420
378.154;   36.038;   -9.690;  555.164
378.750;   46.874;   -6.910;  630.762
379.346;   35.905;  -15.820;  578.667
379.942;   45.322;  -12.960;  626.438
380.537;   32.850;  -13.590;  547.313
381.133;   30.864;  -18.470;  536.995
381.729;   38.432;   -9.190;  590.599
382.325;   35.725;  -19.480;  569.165
382.920;   38.845;  -21.830;  550.666
383.516;   40.768;  -16.250;  586.998
384.111;   38.274;  -17.100;  601.999
384.707;   41.470;  -15.840;  648.979
385.302;   50.232;  -10.560;  740.470
385.898;   50.255;   -2.310;  750.268
386.493;   41.451;  -13.660;  655.366
387.089;   55.589;   -3.690;  831.341
387.684;   47.427;  -17.850;  727.342
388.280;   42.926;  -20.210;  694.390
388.875;   97.692;   26.630; 1156.803
389.470;   52.701;  -16.880;  735.932
390.066;   62.005;   -5.940;  795.666
390.661;   50.318;  -19.990;  681.850
391.256;   53.192;  -15.310;  721.955
391.851;   46.974;  -15.200;  614.047
392.446;   44.943;  -11.250;  613.759
393.041;   36.960;  -15.920;  570.658
393.637;   33.958;  -14.790;  551.315
394.232;   45.605;  -13.000;  642.501
394.827;   41.578;  -19.880;  614.699
395.422;   68.978;   -8.100;  829.449
396.017;   90.119;  -11.350; 1039.421
396.612;   79.720;  -18.570;  957.493
397.206;   83.235;  -15.150; 1011.350
397.801; 1621.676; 1518.180;16853.839
398.396;  111.005;    6.480; 1129.267
398.991;   88.465;  -13.980; 1007.102
399.586;   64.411;  -21.490;  876.733
400.180;   49.946;  -16.800;  720.055
400.775;   42.646;  -19.570;  654.041
401.370;   41.682;  -17.880;  649.201
401.965;   35.103;  -19.910;  612.626
402.559;   38.506;  -19.440;  615.758
403.154;   41.556;  -16.360;  633.789
403.748;   48.560;   -8.810;  691.191
404.343;   44.724;  -10.560;  670.546
404.937;   42.215;  -13.670;  672.150
405.532;   46.503;  -26.790;  693.490
406.126;   52.082;   -5.040;  824.019
406.721;   46.001;  -20.480;  779.113
407.315;   57.725;  -16.900;  810.668
407.909;   67.076;  -14.050;  960.425
408.504;  127.964;  -14.640; 1426.859
409.098;  211.866;  -14.320; 2136.942
409.692;  232.000;   -2.900; 2312.560
410.286;  219.489;  -24.840; 2147.155
410.881;  223.007;  -15.220; 2199.210
411.475;  203.680;  -22.520; 2055.573
412.069;  193.259;  -19.980; 1964.006
412.663;  162.079;  -15.560; 1699.271
413.257;   73.871;  -20.430;  949.849
413.851;   42.062;  -25.060;  666.502
414.445;   59.507;   -5.460;  881.362
415.039;   44.282;  -22.840;  660.017
415.633;   50.447;  -16.320;  789.128
416.227;   44.257;  -17.310;  778.794
416.821;   55.395;  -12.850;  853.837
417.415;   53.184;  -13.470;  825.979
418.008;   60.468;  -15.100;  845.683
418.602;   48.565;  -19.610;  804.702
419.196;   56.750;  -18.730;  808.974
419.790;   52.702;  -20.220;  838.402
420.383;   50.670;  -19.620;  785.928
420.977;   44.792;  -20.440;  717.686
421.571;   39.809;  -22.050;  717.553
422.164;   43.405;  -15.670;  747.414
422.758;   39.715;  -19.300;  653.766
423.351;   37.311;  -18.250;  625.412
423.945;   63.254;    2.970;  821.412
424.538;   40.146;  -17.370;  629.737
425.132;   50.978;   -5.910;  741.964
425.725;   45.053;   -7.430;  661.055
426.318;   32.360;  -15.680;  582.061
426.912;   49.466;  -13.690;  674.573
427.505;   47.308;   -6.230;  670.365
428.098;   46.335;    0.320;  705.581
428.692;   35.064;  -23.330;  582.763
429.285;   43.168;  -21.560;  605.482
429.878;   44.391;  -17.160;  674.548
430.471;   47.938;  -16.080;  678.147
431.064;   56.785;  -10.380;  785.664
431.657;   78.716;  -17.930;  935.123
432.250;  353.465;  -19.050; 3230.731
432.843;  842.399;  -14.250; 7588.370
433.436; 1008.051;  -18.560; 8982.929
434.029; 1032.189;  -20.820; 9157.468
434.622; 1017.305;   -8.000; 8965.516
435.215; 1003.284;  -15.480; 8934.028
435.808;  980.877;  -20.010; 8621.923
436.401;  799.571;  -19.590; 7162.760
436.994;  379.665;  -24.770; 3408.116
437.586;   84.757;  -27.100; 1017.357
438.179;   59.110;  -13.710;  832.739
438.772;   50.271;  -21.590;  687.126
439.364;   48.715;  -22.080;  690.368
439.957;   61.174;  -11.930;  890.258
440.550;   52.268;  -18.410;  784.013
441.142;   62.440;  -15.910;  898.175
441.735;   59.830;  -11.410;  882.795
442.327;   56.534;  -15.700;  843.743
442.920;   63.902;   -3.850;  947.668
443.512;   55.758;  -22.780;  851.296
444.104;   60.206;   -8.190;  923.036
444.697;   56.933;  -19.960;  800.470
445.289;   47.484;  -22.100;  782.044
445.881;   49.217;  -23.040;  812.074
446.474;   55.243;  -10.760;  862.420
447.066;   49.011;  -29.560;  755.930
447.658;   50.046;  -12.960;  848.386
448.250;   66.710;   -8.710;  912.106
448.843;   48.689;  -20.740;  756.101
449.435;   54.417;  -15.300;  839.622
450.027;   57.142;   -8.160;  880.333
450.619;   42.385;  -17.820;  761.616
451.211;   49.133;  -23.570;  811.858
451.803;   63.429;   -5.130;  909.987
452.395;   48.422;  -22.110;  748.297
452.987;   37.114;  -27.830;  703.859
453.579;   41.263;  -18.290;  696.154
454.170;   35.519;  -24.080;  699.000
454.762;   54.116;   -5.870;  829.770
455.354;   60.084;   -6.200;  921.907
455.946;   48.519;  -24.050;  795.187
456.537;   48.856;  -26.460;  847.237
457.129;   63.590;  -16.240;  963.258
457.721;   54.048;  -18.820;  875.547
458.312;   49.397;  -20.310;  851.308
458.904;   69.041;   -9.840;  966.880
459.496;   58.330;  -14.310;  821.691
460.087;   49.248;  -26.170;  749.948
460.679;   40.473;  -20.450;  681.669
461.270;   52.001;  -13.020;  791.414
461.862;   59.744;  -20.710;  888.577
462.453;   65.384;  -14.230; 1008.522
463.044;   62.061;  -24.620;  948.210
463.636;   82.160;   -8.050; 1096.857
464.227;   76.032;   -5.760; 1068.116
464.818;   72.435;  -19.720; 1009.846
465.409;   59.924;  -19.640;  950.790
466.001;   54.425;  -24.350;  810.714
466.592;   45.262;  -22.810;  752.148
467.183;   50.510;  -21.200;  777.587
467.774;   54.746;  -14.830;  772.771
468.365;   52.172;  -22.420;  764.497
468.956;   57.971;  -13.180;  784.214
469.547;   59.034;  -13.000;  809.561
470.138;   46.092;  -21.050;  689.382
470.729;   55.889;  -10.000;  801.085
471.320;   47.966;  -11.520;  751.603
471.911;   46.588;  -23.650;  682.794
472.502;   44.368;  -22.180;  653.414
473.092;   41.202;  -23.410;  659.815
473.683;   61.389;   -1.260;  840.721
474.274;   44.671;  -19.680;  654.475
474.865;   39.435;  -23.690;  620.798
475.455;   56.098;  -12.730;  744.947
476.046;   72.588;   -5.150;  866.280
476.637;   50.149;  -19.930;  695.401
